time (s)	theta (A)	maj axis/z0	min axis/z0	crossing#mod 255
18115.194269	149.507233	1.972551	0.172764	15
18117.986071	149.419006	1.969824	0.171921	17
18120.778355	149.322403	1.973603	0.171088	19
18123.570739	148.950058	1.972298	0.170315	21
18126.361938	148.780518	1.966109	0.170090	23
18129.152966	148.671265	1.965343	0.169694	25
18131.944331	148.518234	1.960205	0.170045	27
18134.734958	148.510376	1.956421	0.169887	29
18137.526106	148.502487	1.956044	0.170148	31
18140.316884	148.546738	1.955846	0.170570	33
18143.106979	148.886292	1.955431	0.171449	35
18145.896674	149.358551	1.954436	0.172096	37
18148.686364	149.948105	1.951357	0.172554	39
18151.476246	150.214249	1.946236	0.172314	41
18154.267061	150.468369	1.939218	0.172152	43
18157.057266	150.448959	1.934687	0.171989	45
18159.849298	150.334732	1.929775	0.172018	47
18162.641711	150.187927	1.929483	0.171534	49
18165.434292	149.880219	1.928557	0.170570	51
18168.226491	149.547424	1.928044	0.170254	53
18171.018457	149.444611	1.924995	0.169174	55
18173.809585	149.263855	1.922117	0.168955	57
18176.600639	149.237305	1.919353	0.168684	59
18179.391691	149.119400	1.917669	0.168917	61
18182.182531	149.013229	1.913740	0.168639	63
18184.973549	148.982605	1.911805	0.168656	65
18187.763940	149.080414	1.911263	0.168780	67
18190.554287	149.462830	1.907877	0.169783	69
18193.343480	150.097290	1.907094	0.170462	71
18196.133244	150.607452	1.904082	0.170781	73
18198.923184	150.806488	1.898779	0.170719	75
18201.713432	150.887238	1.892275	0.170752	77
18204.504534	150.968735	1.888849	0.170485	79
18207.296606	150.735535	1.886267	0.170025	81
18210.088938	150.589340	1.881541	0.169170	83
18212.881451	150.263077	1.882673	0.168384	85
18215.673927	150.062454	1.879782	0.167088	87
18218.464976	149.932953	1.879429	0.166488	89
18221.256008	149.821198	1.878991	0.165710	91
18224.046963	149.729630	1.874596	0.165634	93
18226.838228	149.619370	1.870996	0.165611	95
18229.629366	149.478424	1.869977	0.165616	97
18232.420309	149.452484	1.867721	0.166013	99
18235.210553	149.621841	1.870043	0.166476	101
18238.000641	149.938217	1.869499	0.167212	103
18240.790067	150.511703	1.866466	0.167905	105
18243.579345	151.010925	1.861997	0.168037	107
18246.369452	151.302979	1.855912	0.167713	109
18249.159556	151.449234	1.850133	0.167707	111
18251.950783	151.389023	1.846474	0.167006	113
18254.743061	151.292679	1.843408	0.167099	115
18257.535237	151.122925	1.843153	0.166326	117
18260.328039	150.798233	1.843694	0.165523	119
18263.119875	150.563629	1.842680	0.164684	121
18265.911576	150.341446	1.841601	0.164026	123
18268.702642	150.151230	1.836220	0.163670	125
18271.493559	150.142914	1.832135	0.163143	127
18274.284182	150.018417	1.830392	0.162601	129
18277.075553	149.913742	1.824820	0.162251	131
18279.866393	149.995148	1.825280	0.162196	133
18282.656282	150.070801	1.824739	0.162665	135
18285.446580	150.464188	1.823559	0.163428	137
18288.236212	150.998138	1.820446	0.163839	139
18291.025611	151.448425	1.817755	0.164025	141
18293.815490	151.708405	1.812520	0.164113	143
18296.605999	151.834122	1.808408	0.163884	145
18299.397285	151.746475	1.804853	0.163935	147
18302.189613	151.595886	1.802678	0.163492	149
18304.982099	151.401611	1.802688	0.163268	151
18307.774314	151.181305	1.802422	0.162080	153
18310.566195	150.977005	1.802019	0.161275	155
18313.357547	150.791214	1.799649	0.161233	157
18316.148420	150.652435	1.796155	0.160853	159
18318.939369	150.575607	1.792592	0.160652	161
18321.730260	150.535004	1.788774	0.160842	163
18324.521107	150.385696	1.787462	0.160562	165
18327.311518	150.451340	1.785677	0.160645	167
18330.101542	150.680679	1.786168	0.161169	169
18332.891628	151.081467	1.784730	0.161855	171
18335.680750	151.599258	1.781798	0.162384	173
18338.470690	151.807220	1.777378	0.162564	175
18341.259986	152.139954	1.769842	0.162144	177
18344.052183	152.236908	1.765877	0.162161	179
18346.842631	152.213425	1.762828	0.161957	181
18349.634543	152.061600	1.761032	0.161449	183
18352.427767	151.769165	1.761510	0.160816	185
18355.219544	151.442047	1.759277	0.160293	187
18358.011174	151.262131	1.759071	0.159909	189
18360.802398	151.127991	1.755313	0.159129	191
18363.593782	151.011703	1.752560	0.159067	193
18366.384480	150.958817	1.750434	0.158512	195
18369.175361	150.878723	1.746828	0.158806	197
18371.966332	150.853470	1.746657	0.158956	199
18374.756642	150.917572	1.745472	0.159219	201
18377.546867	151.197769	1.745184	0.159874	203
18380.336639	151.600693	1.745535	0.160579	205
18383.125996	152.033234	1.741256	0.160911	207
18385.915611	152.374390	1.736846	0.160477	209
18388.705792	152.536636	1.731576	0.160529	211
18391.496816	152.548401	1.728130	0.159907	213
18394.288249	152.465088	1.725400	0.159889	215
18397.080696	152.298904	1.724789	0.159029	217
18399.872766	152.131729	1.725613	0.158407	219
18402.664972	151.870117	1.723836	0.157317	221
18405.456411	151.697128	1.722770	0.156854	223
18408.247766	151.482162	1.720845	0.156588	225
18411.038495	151.431732	1.716639	0.156514	227
18413.829138	151.384735	1.713409	0.156078	229
18416.620411	151.328918	1.711526	0.156419	231
18419.410733	151.106888	1.711848	0.156862	233
18422.202047	151.280182	1.706361	0.157260	235
18424.990959	151.710419	1.708272	0.157818	237
18427.780944	152.097900	1.704860	0.157967	239
18430.570355	152.516510	1.702190	0.158638	241
18433.360337	152.762177	1.698093	0.158571	243
18436.150891	152.936020	1.694938	0.158472	245
18438.942057	152.927460	1.692743	0.158347	247
18441.734137	152.795242	1.691467	0.158253	249
18444.526193	152.606277	1.691337	0.157470	251
18447.318247	152.321320	1.692443	0.157049	253
18450.109709	152.195541	1.689014	0.156240	255
18452.901835	151.980347	1.686639	0.155757	1
18455.692300	151.975449	1.683085	0.155351	3
18458.483713	151.855255	1.679885	0.154920	5
18461.273708	151.751083	1.680185	0.154783	7
18464.064118	151.806076	1.676763	0.155159	9
18466.854489	151.953461	1.677564	0.155179	11
18469.645601	152.100357	1.676942	0.155621	13
18472.434970	152.235367	1.674010	0.155771	15
18475.224748	152.673889	1.667930	0.156169	17
18478.014942	153.073151	1.664614	0.156110	19
18480.803989	153.231644	1.663546	0.155961	21
18483.595587	153.191437	1.659554	0.155788	23
18486.386996	153.132843	1.656933	0.155636	25
18489.179151	153.003616	1.656204	0.155280	27
18491.970849	152.852600	1.654949	0.154964	29
18494.762859	152.582840	1.654319	0.154696	31
18497.554439	152.436615	1.652722	0.154105	33
18500.345585	152.172989	1.651666	0.153804	35
